;+
;> Description = 'Filter transmission curve for the IRAC 4.5um band'
;> Wave_Units = '[um]'
;> T_Units    = '[]'
;-

;~       Wave            T
      3.00000  3.51800e-06
      3.01000  4.84400e-06
      3.02000  5.52900e-05
      3.03000  9.63500e-05
      3.04000  0.000271900
      3.05000  5.84200e-05
      3.06000  5.20100e-05
      3.07000  5.98500e-05
      3.08000  0.000247900
      3.09000  9.35100e-05
      3.10000  0.000148600
      3.11000  6.74800e-06
      3.12000  0.000119600
      3.13000  0.000193200
      3.14000  0.000149800
      3.15000  0.000265900
      3.16000  0.000505800
      3.17000  2.88800e-05
      3.18000  0.000393800
      3.19000  0.000194200
      3.20000  8.68200e-05
      3.21000  0.000189800
      3.22000  0.000234400
      3.23000  0.000209600
      3.24000  5.92000e-05
      3.25000  0.000114600
      3.26000  0.000150700
      3.27000  5.60200e-05
      3.28000  0.000348900
      3.29000  4.70500e-05
      3.30000  2.90200e-05
      3.31000  8.95700e-05
      3.32000  6.20700e-05
      3.33000  0.000133100
      3.34000  0.000231800
      3.35000  5.39700e-05
      3.36000  5.42300e-05
      3.37000  2.06100e-05
      3.38000  9.41300e-05
      3.39000  1.44700e-05
      3.40000  0.000104800
      3.41000  0.000141900
      3.42000  0.000109400
      3.43000  0.000320900
      3.44000  0.000250900
      3.45000  0.000455000
      3.46000  0.000438800
      3.47000  0.000543300
      3.48000  0.000432700
      3.49000  6.27100e-05
      3.50000  5.66400e-05
      3.51000  5.73500e-05
      3.52000  5.84600e-05
      3.53000  5.97300e-05
      3.54000  6.11100e-05
      3.55000  6.21300e-05
      3.56000  5.27700e-05
      3.57000  8.83900e-05
      3.58000  0.000120000
      3.59000  2.69300e-05
      3.60000  0.000314800
      3.61000  0.000167800
      3.62000  0.000293500
      3.63000  0.000323400
      3.64000  0.000500600
      3.65000  0.000289200
      3.66000  9.51400e-05
      3.67000  0.000184900
      3.68000  9.08600e-05
      3.69000  9.28100e-05
      3.70000  9.44200e-05
      3.71000  9.51200e-05
      3.72000  9.53500e-05
      3.73000  9.65300e-05
      3.74000  9.89900e-05
      3.75000  0.000102400
      3.76000  0.000290900
      3.77000  0.000208500
      3.78000  0.000287500
      3.79000  0.000448100
      3.80000  0.000180900
      3.81000  0.000366300
      3.82000  1.16900e-05
      3.83000  4.95100e-05
      3.84000  0.000192200
      3.85000  0.000135500
      3.86000  0.000386200
      3.87000  0.000501800
      3.88000  0.000820500
      3.89000   0.00117500
      3.90000   0.00232100
      3.91000   0.00380700
      3.92000   0.00657100
      3.93000    0.0109000
      3.94000    0.0174400
      3.95000    0.0271900
      3.96000    0.0428300
      3.97000    0.0688800
      3.98000     0.116400
      3.99000     0.198600
      4.00000     0.316900
      4.01000     0.441700
      4.02000     0.524000
      4.03000     0.552300
      4.04000     0.550700
      4.05000     0.535600
      4.06000     0.516800
      4.07000     0.498200
      4.08000     0.480900
      4.09000     0.469100
      4.10000     0.463600
      4.11000     0.466500
      4.12000     0.477100
      4.13000     0.494900
      4.14000     0.520900
      4.15000     0.552400
      4.16000     0.584500
      4.17000     0.615300
      4.18000     0.641700
      4.19000     0.662500
      4.20000     0.678000
      4.21000     0.688600
      4.22000     0.695200
      4.23000     0.697000
      4.24000     0.693800
      4.25000     0.686300
      4.26000     0.678500
      4.27000     0.672000
      4.28000     0.668600
      4.29000     0.669000
      4.30000     0.676000
      4.31000     0.686100
      4.32000     0.698900
      4.33000     0.710100
      4.34000     0.720800
      4.35000     0.728300
      4.36000     0.734100
      4.37000     0.741600
      4.38000     0.748000
      4.39000     0.756900
      4.40000     0.766300
      4.41000     0.774900
      4.42000     0.783400
      4.43000     0.789900
      4.44000     0.793800
      4.45000     0.795700
      4.46000     0.795000
      4.47000     0.796400
      4.48000     0.796800
      4.49000     0.793800
      4.50000     0.788500
      4.51000     0.782300
      4.52000     0.775000
      4.53000     0.768200
      4.54000     0.763100
      4.55000     0.759300
      4.56000     0.758100
      4.57000     0.757900
      4.58000     0.755500
      4.59000     0.752500
      4.60000     0.749100
      4.61000     0.741700
      4.62000     0.732700
      4.63000     0.723400
      4.64000     0.720700
      4.65000     0.723800
      4.66000     0.730600
      4.67000     0.739700
      4.68000     0.750100
      4.69000     0.760200
      4.70000     0.770600
      4.71000     0.778200
      4.72000     0.782100
      4.73000     0.783300
      4.74000     0.780000
      4.75000     0.777100
      4.76000     0.770300
      4.77000     0.763700
      4.78000     0.756700
      4.79000     0.750000
      4.80000     0.746100
      4.81000     0.743700
      4.82000     0.742400
      4.83000     0.742900
      4.84000     0.746900
      4.85000     0.750100
      4.86000     0.752700
      4.87000     0.757400
      4.88000     0.763000
      4.89000     0.769200
      4.90000     0.776900
      4.91000     0.783500
      4.92000     0.785500
      4.93000     0.782000
      4.94000     0.766800
      4.95000     0.742200
      4.96000     0.714300
      4.97000     0.693700
      4.98000     0.691700
      4.99000     0.713200
      5.00000     0.729800
      5.01000     0.652000
      5.02000     0.439200
      5.03000     0.218900
      5.04000    0.0922800
      5.05000    0.0383600
      5.06000    0.0168600
      5.07000   0.00778500
      5.08000   0.00370900
      5.09000   0.00188000
      5.10000  0.000921600
      5.11000  0.000455700
      5.12000  0.000260000
      5.13000  0.000129900
      5.14000  0.000129600
      5.15000  0.000129100
      5.16000  0.000128700
      5.17000  0.000128000
      5.18000  0.000127500
      5.19000  0.000126800
      5.20000  0.000125900
      5.21000  0.000125100
      5.22000  0.000123900
      5.23000  0.000122400
      5.24000  0.000121000
      5.25000  0.000119200
      5.26000  0.000117200
      5.27000  0.000115100
      5.28000  0.000112400
      5.29000  6.79600e-05
      5.30000  5.57700e-05
      5.31000  5.27400e-05
      5.32000  7.60300e-05
      5.33000  3.31100e-05
      5.34000  3.17500e-05
      5.35000  3.03900e-05
      5.36000  2.89800e-05
      5.37000  2.75700e-05
      5.38000  2.61900e-05
      5.39000  2.49000e-05
      5.40000  2.35700e-05
      5.41000  2.23000e-05
      5.42000  2.10600e-05
      5.43000  1.98100e-05
      5.44000  1.86000e-05
      5.45000  1.74700e-05
      5.46000  1.64500e-05
      5.47000  1.55500e-05
      5.48000  1.48600e-05
      5.49000  1.43700e-05
      5.50000  1.40600e-05
      5.51000  1.38800e-05
      5.52000  1.39000e-05
      5.53000  1.40400e-05
      5.54000  1.41600e-05
      5.55000  1.44000e-05
      5.56000  1.46300e-05
      5.57000  1.48800e-05
      5.58000  1.50800e-05
      5.59000  1.51800e-05
      5.60000  1.53100e-05
      5.61000  1.69600e-05
      5.62000  0.000101900
      5.63000  0.000223600
      5.64000  0.000392600
      5.65000  0.000529700
      5.66000  0.000652200
      5.67000  0.000619000
      5.68000  0.000630500
      5.69000  0.000663500
      5.70000  0.000636900
      5.71000  0.000581700
      5.72000  0.000506200
      5.73000  0.000429700
      5.74000  0.000360400
      5.75000  0.000274800
      5.76000  0.000221700
      5.77000  0.000182800
      5.78000  0.000106900
      5.79000  5.86000e-05
      5.80000  6.39900e-05
      5.81000  8.11200e-05
      5.82000  6.93600e-05
      5.83000  3.04000e-05
      5.84000  1.32000e-05
      5.85000  3.40000e-06
      5.86000  3.17200e-06
      5.87000  2.95200e-06
      5.88000  2.74500e-06
      5.89000  2.54300e-06
